!Mini-Circuits Laboratory
!S-Parameters
!Model: PMA-545G2+
!Run / Lot / Date Code: N/A / N/A / NA
!Fixture: NA; TEST BOARD: TB-607+
!AUTO PORT EXTENSION DONE: PORT<1>=120.99ps; PORT<2>=143.047ps
!Network Analyzer: PNA-X N5242A - 423 4 ports;  Serial number: 71256
!Date: 1/11/2011
!S/N: Unit# 3
!
# Hz  S  dB  R  50
!Frequency    S11 dB        S11 Deg       S21 dB        S21 Deg       S12 dB        S12 Deg       S22 dB        S22 Deg       
700000000     -15.9856195   -54.0472603   32.4075317    -22.1990395   -65.5180435   101.6808014   -17.0222492   -169.0070038  
705000000     -15.8668699   -54.8212814   32.3921890    -23.0268803   -65.9052277   116.3732986   -16.9737892   -168.7678986  
710000000     -15.7640600   -55.6876488   32.3893509    -23.8138599   -66.9677734   126.3172989   -16.9646702   -168.6905975  
715000000     -15.6557102   -56.4343300   32.3782005    -24.5853901   -65.1318665   142.3699036   -17.0030708   -168.6894073  
720000000     -15.5720901   -57.2444801   32.3662682    -25.3637009   -65.7929382   124.6910019   -16.9943695   -168.6130981  
725000000     -15.4700003   -58.0352592   32.3610802    -26.1471806   -69.1677628   145.4315948   -16.9913292   -168.5762024  
730000000     -15.4005604   -58.7371292   32.3518410    -26.9056301   -70.5146332   105.9105988   -16.9735699   -168.4940033  
735000000     -15.3251801   -59.6916695   32.3392715    -27.6622391   -64.7398911   108.9396973   -16.9727306   -168.3489075  
740000000     -15.2604198   -60.1909218   32.3278084    -28.4283695   -63.6638489   127.7882004   -16.9772205   -168.4579926  
745000000     -15.1914396   -61.0769005   32.3237190    -29.1712704   -62.8520508   118.9824982   -16.9776192   -168.3630981  
750000000     -15.1051702   -61.7761612   32.3151093    -29.9226608   -62.5578308   130.1295929   -16.9821606   -168.2686005  
755000000     -15.0795498   -62.6529007   32.3051682    -30.6885509   -65.3521729   115.4552994   -17.0077496   -168.2971954  
760000000     -15.0140495   -63.3061981   32.2969017    -31.4109592   -64.7358475   126.6453018   -16.9967308   -168.2108002  
765000000     -14.9649601   -63.9338799   32.2862587    -32.1294899   -67.8475494   127.1706009   -17.0069695   -168.0711975  
770000000     -14.8790503   -64.7897186   32.2784996    -32.8789406   -68.2771912   105.5464020   -17.0176105   -168.1080017  
775000000     -14.8322697   -65.5460129   32.2704887    -33.6020088   -65.9683685   124.2996979   -17.0041103   -167.9882965  
780000000     -14.7713003   -66.1815872   32.2603912    -34.3073006   -66.3916626   118.1134033   -16.9963398   -168.1560059  
785000000     -14.7373400   -66.9020233   32.2538490    -35.0136490   -61.7580414   132.0664978   -17.0288105   -167.9416046  
790000000     -14.6814203   -67.5474701   32.2480583    -35.7249107   -65.2940063   163.3437958   -17.0547695   -168.1212006  
795000000     -14.6679602   -68.4710236   32.2383194    -36.4483986   -66.4930267   110.7263031   -17.0480404   -168.0744934  
800000000     -14.6022902   -69.0391006   32.2325706    -37.1389618   -64.0838470   121.2563019   -17.0883808   -167.8448944  
805000000     -14.5522804   -69.8495026   32.2330894    -37.8113213   -63.6435890   118.6961975   -17.0602093   -167.7382965  
810000000     -14.5212402   -70.4869919   32.2219887    -38.5543098   -61.0938911   137.1141968   -17.0464306   -167.7120056  
815000000     -14.4876499   -71.2477036   32.2137413    -39.2570801   -65.6256790   120.6080017   -17.0893307   -167.9237061  
820000000     -14.4593801   -71.9932022   32.2097511    -39.9383507   -64.8771210   141.7389984   -17.0621490   -167.9221039  
825000000     -14.4320602   -72.6380615   32.1982689    -40.6211205   -63.4221497   125.5646973   -17.0731506   -167.8847961  
830000000     -14.3967800   -73.3269577   32.1946907    -41.3227501   -65.7740707   132.4347992   -17.0759392   -167.8766937  
835000000     -14.3796701   -73.9776535   32.1868782    -41.9927292   -66.3207321   123.7947006   -17.0593109   -167.7588959  
840000000     -14.3509502   -74.6654434   32.1809998    -42.6867714   -61.0993004   125.5959015   -17.1078892   -167.6916962  
845000000     -14.3461905   -75.5169830   32.1738091    -43.3514519   -65.3369217   132.1676025   -17.0977707   -167.9299927  
850000000     -14.3220301   -76.2225800   32.1690292    -44.0479507   -64.5924530   114.0658035   -17.0734196   -167.7873993  
855000000     -14.2801704   -76.8998566   32.1626892    -44.7370110   -60.8637085   121.3191986   -17.0917397   -167.4544067  
860000000     -14.2743301   -77.7564163   32.1559486    -45.3935699   -62.3120804   110.4451981   -17.0827999   -167.7140961  
865000000     -14.2452297   -78.3103485   32.1513786    -46.0542412   -63.0923119   122.5707016   -17.0889206   -167.7559052  
870000000     -14.2138901   -78.9814072   32.1476212    -46.7100601   -63.7732201   117.4522018   -17.1020508   -167.6896973  
875000000     -14.1893101   -79.6577072   32.1396294    -47.3874207   -61.5060997   140.2088928   -17.1152096   -167.5126038  
880000000     -14.1903496   -80.4292908   32.1328506    -48.0667305   -62.0103416   126.3722000   -17.0908699   -167.5218964  
885000000     -14.1652203   -81.1713028   32.1301994    -48.7419586   -61.4279900   131.0377045   -17.0931492   -167.5043030  
890000000     -14.1394100   -81.8684464   32.1244583    -49.3818207   -62.2190704   132.5229034   -17.1035500   -167.5482025  
895000000     -14.1207800   -82.4176178   32.1136589    -50.0601997   -62.6436996   133.5086975   -17.0997009   -167.5821991  
900000000     -14.1148100   -83.1999283   32.1102104    -50.7011108   -64.3575821   125.7315979   -17.1156902   -167.5401001  
905000000     -14.1015997   -83.8406372   32.1046410    -51.3668900   -64.5493164   128.5030975   -17.0994701   -167.4615936  
910000000     -14.1118898   -84.5508194   32.1029282    -51.9928398   -62.3173790   139.0541992   -17.1215000   -167.4640045  
915000000     -14.0888901   -85.1607513   32.0931396    -52.6671982   -62.8401909   133.3892975   -17.0948009   -167.5195007  
920000000     -14.0780497   -85.9024277   32.0905800    -53.3113899   -63.9087906   106.5680008   -17.0884991   -167.5325012  
925000000     -14.0579300   -86.4709396   32.0850487    -53.9426804   -61.9008293   136.9398041   -17.1033592   -167.2382050  
930000000     -14.0500698   -87.0580902   32.0793915    -54.5942612   -63.6849518   150.4685059   -17.1137409   -167.2722015  
935000000     -14.0095196   -87.9012985   32.0740700    -55.2092590   -58.8514290   133.2097931   -17.0738602   -167.0870056  
940000000     -14.0468502   -88.5337067   32.0687408    -55.9052200   -61.3435402   131.4001007   -17.0996399   -167.2135925  
945000000     -14.0389500   -89.1000137   32.0625305    -56.5296211   -62.4649010   111.2011032   -17.0669308   -167.3188019  
950000000     -14.0322599   -90.0929108   32.0571289    -57.1558990   -59.1126518   124.5914001   -17.0767307   -167.2476044  
955000000     -14.0151997   -90.5942535   32.0535889    -57.8052292   -63.6498795   118.0070038   -17.1082191   -167.1289063  
960000000     -14.0245104   -91.2959518   32.0460587    -58.4317398   -59.4902802   145.6981964   -17.0874100   -167.0630035  
965000000     -14.0100098   -91.9195328   32.0434494    -59.0732307   -61.8159904   131.2803955   -17.1047802   -167.0173035  
970000000     -14.0007296   -92.4610596   32.0394211    -59.6921387   -60.9713097   117.2260971   -17.1021805   -167.0265961  
975000000     -14.0148401   -93.2040176   32.0326614    -60.3435211   -60.7608910   130.5301056   -17.1088505   -167.1813049  
980000000     -14.0188503   -93.7291870   32.0281601    -60.9465790   -64.6486969   129.0746002   -17.0872002   -167.0832062  
985000000     -14.0142202   -94.3647995   32.0252419    -61.5931206   -62.2506905   130.2801971   -17.1217194   -166.9918976  
990000000     -13.9937601   -95.2427368   32.0207596    -62.2110214   -60.0192184   124.0509033   -17.0922794   -166.9293060  
995000000     -14.0046597   -95.7841034   32.0191803    -62.8473587   -63.3266106   129.4680023   -17.0802402   -166.8097992  
1000000000    -14.0105305   -96.5027466   32.0132790    -63.4784012   -61.2901115   123.5651016   -17.0788708   -166.9105072  
1005000000    -14.0267801   -97.0203705   32.0079384    -64.1077194   -61.5793991   124.7910995   -17.0878792   -166.8731995  
1010000000    -14.0091295   -97.7459869   32.0061989    -64.7256088   -61.9205284   108.6539993   -17.0761299   -166.9299011  
1015000000    -14.0222998   -98.4865036   31.9978008    -65.3571930   -58.5084190   134.8647003   -17.0687294   -166.8056030  
1020000000    -14.0376701   -99.1178589   31.9968395    -65.9755325   -62.2774086   125.4516983   -17.0783901   -166.8025055  
1025000000    -14.0281496   -99.7963867   31.9907799    -66.6000519   -60.2636604   122.2459030   -17.0708199   -166.7306976  
1030000000    -14.0324602   -100.4412003  31.9855900    -67.2427063   -59.8240891   134.1237030   -17.0493107   -166.8598022  
1035000000    -14.0326700   -101.1666031  31.9860191    -67.8635483   -59.9663315   115.4924011   -17.0549297   -166.7991943  
1040000000    -14.0410299   -101.6949005  31.9787998    -68.4667282   -60.6380081   133.0281982   -17.0657101   -166.9517975  
1045000000    -14.0466099   -102.5842972  31.9761391    -69.1004868   -58.4138489   121.8629990   -17.0684109   -166.8455963  
1050000000    -14.0556498   -103.0111008  31.9713192    -69.7019501   -60.8307610   125.0988998   -17.0563698   -166.7812042  
1055000000    -14.0810204   -103.7388992  31.9667091    -70.3404617   -61.9138298   123.2341003   -17.0905304   -167.0229034  
1060000000    -14.0794401   -104.4135971  31.9610596    -70.9588318   -59.4448395   123.4906998   -17.0535698   -166.9208984  
1065000000    -14.0977297   -105.1897964  31.9552803    -71.5704269   -58.8999710   114.2468033   -17.0492592   -167.0431061  
1070000000    -14.1178503   -105.8285980  31.9539700    -72.2019806   -59.8839607   125.1368027   -17.0636101   -167.0095062  
1075000000    -14.1146698   -106.5358963  31.9478493    -72.8234634   -61.3157806   119.3912964   -17.0547600   -167.1914978  
1080000000    -14.1364498   -107.1580963  31.9426193    -73.4454727   -60.9794006   134.0955963   -17.0263691   -167.0021057  
1085000000    -14.1340303   -107.7843018  31.9408894    -74.0569305   -58.5060692   127.5538025   -17.0350494   -167.2675934  
1090000000    -14.1533003   -108.5681992  31.9377403    -74.6819534   -60.9666405   131.2657928   -17.0133209   -167.2140045  
1095000000    -14.1616802   -109.2900009  31.9316006    -75.3078232   -60.0549507   117.9045029   -17.0186996   -167.3096924  
1100000000    -14.1775999   -109.9934998  31.9267693    -75.9075775   -59.5144501   133.2498932   -17.0116005   -167.2727966  
1105000000    -14.1983604   -110.6495972  31.9245491    -76.5601578   -61.1328316   126.7658997   -17.0070896   -167.4058075  
1110000000    -14.1808300   -111.1669998  31.9168606    -77.1732864   -61.1812096   124.3159027   -17.0078907   -167.4474030  
1115000000    -14.1964598   -111.9517975  31.9133396    -77.7659607   -58.8660583   127.2823029   -17.0285797   -167.4450989  
1120000000    -14.2158699   -112.6504974  31.9072704    -78.3921814   -57.6957703   127.0419998   -17.0209198   -167.4369965  
1125000000    -14.2361202   -113.3223038  31.9012699    -79.0082474   -60.7533112   123.4757004   -17.0172596   -167.5686035  
1130000000    -14.2308502   -113.8994980  31.8995094    -79.6175766   -60.8801804   116.6726990   -17.0350895   -167.4367065  
1135000000    -14.2018099   -114.7792969  31.9004498    -80.2252197   -58.4782715   118.4803009   -16.9638996   -167.4718933  
1140000000    -14.2261496   -115.5061035  31.8968601    -80.8656616   -60.2782593   121.6825027   -16.9392509   -167.7122040  
1145000000    -14.2252798   -116.2534027  31.8875103    -81.4963531   -58.3954582   137.1546021   -16.9119492   -167.7086029  
1150000000    -14.2530699   -117.1428986  31.8794308    -82.1215897   -58.2047501   116.6524963   -16.9177704   -168.1578979  
1155000000    -14.2794704   -117.8063965  31.8753700    -82.7583618   -59.0700912   116.5514984   -16.9015903   -168.2086029  
1160000000    -14.2624903   -118.4881973  31.8672199    -83.3709488   -59.2685089   130.3529053   -16.8853893   -168.1876068  
1165000000    -14.3039703   -119.1047974  31.8595791    -83.9943237   -58.2493515   115.0177002   -16.8726807   -168.5406036  
1170000000    -14.3163404   -120.0473022  31.8527107    -84.6168594   -57.6434212   131.3504028   -16.8657894   -168.7014008  
1175000000    -14.3269596   -120.5675964  31.8476200    -85.2313232   -57.6782913   126.7574997   -16.8491001   -168.6947021  
1180000000    -14.3168402   -121.0989990  31.8412094    -85.8472366   -57.8121300   109.2455978   -16.8396397   -168.7386017  
1185000000    -14.3269701   -121.8363037  31.8377705    -86.4554520   -59.1479111   117.8028030   -16.8198795   -168.8379059  
1190000000    -14.3397799   -122.6025009  31.8317204    -87.0721664   -59.2828217   129.7438049   -16.8359203   -168.9857941  
1195000000    -14.3720999   -123.1339035  31.8252506    -87.6985321   -60.2475090   129.7463074   -16.8182793   -169.0332031  
1200000000    -14.3399000   -124.0588989  31.8190403    -88.3085403   -57.8772011   114.1673965   -16.7672195   -168.9893036  
1205000000    -14.3762703   -124.5026016  31.8117695    -88.9300385   -59.0933685   112.8102036   -16.7657299   -169.2478027  
1210000000    -14.3625402   -125.2848969  31.8029099    -89.5666122   -59.2621002   123.1658020   -16.7668095   -169.3482056  
1215000000    -14.3696299   -125.8835983  31.7989502    -90.2013397   -58.1229782   119.3172989   -16.7257996   -169.4645996  
1220000000    -14.3743801   -126.7680969  31.7873001    -90.8142395   -56.3365517   117.8062973   -16.7137108   -169.7189026  
1225000000    -14.3756399   -127.3104019  31.7815399    -91.4456863   -58.4106712   120.4824982   -16.7142906   -169.7346039  
1230000000    -14.3744497   -128.0666962  31.7727394    -92.0582962   -57.8872986   128.7604980   -16.6803207   -169.7006989  
1235000000    -14.3938799   -128.6188049  31.7651501    -92.6472931   -57.4202309   115.6193008   -16.6984291   -170.0079041  
1240000000    -14.3885298   -129.2126007  31.7591209    -93.2616577   -57.6219902   117.3591003   -16.6641502   -170.2312927  
1245000000    -14.3935404   -129.7675018  31.7551994    -93.8728409   -58.1044312   110.3928986   -16.6619701   -170.1714935  
1250000000    -14.3922300   -130.4660950  31.7439194    -94.4987793   -58.3381310   122.0953979   -16.6364708   -170.3970032  
1255000000    -14.4052095   -131.0211029  31.7356606    -95.1251373   -57.0699501   111.5534973   -16.6301308   -170.4288940  
1260000000    -14.3980703   -131.6775970  31.7282600    -95.7478638   -58.4718704   129.2772064   -16.6002293   -170.6118011  
1265000000    -14.4242001   -132.4114075  31.7183990    -96.3364868   -56.6844597   123.2175980   -16.6265297   -170.6903992  
1270000000    -14.3980904   -132.8896942  31.7163792    -96.9635696   -57.9123993   121.8487015   -16.6059608   -170.5612030  
1275000000    -14.3978701   -133.5859985  31.7094193    -97.5939331   -58.2482109   114.2750015   -16.5045605   -170.7122040  
1280000000    -14.4255695   -134.3975983  31.6973591    -98.2435837   -57.6766205   112.9798965   -16.5104008   -171.0276947  
1285000000    -14.4521399   -134.9207001  31.6851501    -98.8356476   -58.7432213   119.8991013   -16.5317707   -171.3150024  
1290000000    -14.4709301   -135.4877930  31.6750393    -99.4599762   -55.7945786   112.2436981   -16.4839191   -171.3307953  
1295000000    -14.4689703   -136.1044006  31.6637707    -100.0767975  -57.4878502   120.6314011   -16.4965191   -171.5243073  
1300000000    -14.4665499   -136.6242981  31.6561909    -100.7015991  -56.8540497   124.7399979   -16.4737797   -171.4774017  
1305000000    -14.4980497   -137.4216003  31.6452007    -101.3246002  -56.0343704   107.4619980   -16.4991207   -171.9116974  
1310000000    -14.5046196   -137.8181000  31.6352997    -101.9487000  -57.3784599   111.6196976   -16.4928703   -172.1179962  
1315000000    -14.4825296   -138.5121002  31.6261902    -102.5338974  -57.6535416   130.2433014   -16.4598103   -172.0287933  
1320000000    -14.5270996   -139.0238037  31.6162205    -103.1437988  -55.9505882   117.6384964   -16.4718800   -172.2955933  
1325000000    -14.5316401   -139.4660950  31.6049500    -103.7782974  -56.6697197   114.3082962   -16.4585705   -172.4539948  
1330000000    -14.5408297   -140.2738037  31.5942593    -104.3954010  -57.8239784   116.2991028   -16.4612598   -172.7160034  
1335000000    -14.5843401   -140.6486969  31.5823994    -104.9945984  -55.9072914   111.5830994   -16.4681797   -172.8522034  
1340000000    -14.5797005   -141.2725983  31.5730495    -105.6205978  -56.2354813   118.9276962   -16.4353199   -172.9853973  
1345000000    -14.5831003   -141.7388000  31.5616798    -106.2119980  -58.1410103   108.0606003   -16.4158993   -173.1483002  
1350000000    -14.5972996   -142.3343048  31.5492592    -106.8414993  -56.4486694   118.4459000   -16.4359303   -173.3594055  
1355000000    -14.6172705   -142.8849030  31.5394192    -107.4648972  -57.7227287   103.8993988   -16.4317207   -173.7061005  
1360000000    -14.6307001   -143.5830994  31.5282307    -108.0756989  -57.3464813   105.6353989   -16.4436092   -173.8836975  
1365000000    -14.6501799   -144.0391998  31.5188694    -108.6773987  -55.3101082   110.4657974   -16.4286995   -173.7404022  
1370000000    -14.6750698   -144.6493988  31.5041504    -109.3029022  -55.6484108   107.3506012   -16.4117794   -174.1423035  
1375000000    -14.6647501   -145.0697021  31.4970798    -109.9254990  -56.4768791   125.2242966   -16.4381409   -174.3992004  
1380000000    -14.7071695   -145.6215057  31.4831905    -110.5139008  -56.1652794   113.1248016   -16.4381695   -174.6873932  
1385000000    -14.7235498   -146.2306976  31.4730206    -111.1604996  -55.6735115   107.8834000   -16.4510708   -174.9232025  
1390000000    -14.7381201   -146.8706055  31.4563694    -111.7649994  -56.2358704   117.5501022   -16.4263706   -175.1208038  
1395000000    -14.7536001   -147.2642975  31.4462605    -112.3945999  -55.5255203   111.6904984   -16.4474792   -175.3574982  
1400000000    -14.7537804   -147.6997986  31.4334297    -112.9990997  -57.4884186   108.2289963   -16.4456902   -175.5491943  
1405000000    -14.7784204   -148.2628021  31.4195404    -113.5886993  -57.4592209   112.6804962   -16.4483795   -176.0278015  
1410000000    -14.8164301   -148.9158936  31.4058990    -114.2166977  -55.5965500   112.1857986   -16.4554195   -176.1725006  
1415000000    -14.8137798   -149.3833008  31.3956509    -114.8231964  -56.1781311   111.7805023   -16.4713097   -176.4019012  
1420000000    -14.8658104   -150.0782013  31.3802109    -115.4428024  -55.2299118   115.0307007   -16.4855003   -176.7460938  
1425000000    -14.8522100   -150.5621948  31.3663807    -116.0682983  -55.8602905   111.3899994   -16.4846592   -177.0901947  
1430000000    -14.8899698   -150.9947968  31.3549194    -116.6846008  -55.1015892   108.6544037   -16.5006008   -177.4295044  
1435000000    -14.9141598   -151.4591064  31.3404102    -117.2931976  -55.1418991   109.0121994   -16.5086498   -177.7261047  
1440000000    -14.9566803   -152.1002960  31.3248806    -117.9235001  -56.4820404   113.6689987   -16.4930305   -178.0332947  
1445000000    -14.9792700   -152.4315033  31.3136997    -118.5198975  -55.2960815   109.0352020   -16.4913902   -178.3849945  
1450000000    -14.9821701   -152.9013977  31.2949295    -119.1485977  -55.3747292   102.9646988   -16.5135708   -178.5854950  
1455000000    -15.0329199   -153.4039001  31.2796803    -119.7791977  -56.8006516   110.7655029   -16.5381603   -179.0287018  
1460000000    -15.0372105   -153.8267975  31.2642307    -120.3615036  -56.1189499   111.5792999   -16.5636902   -179.5458069  
1465000000    -15.0474901   -154.4335938  31.2465000    -120.9822006  -54.7848396   116.4341965   -16.5653496   -179.6911926  
1470000000    -15.0867796   -154.9355011  31.2326698    -121.6078033  -55.3313904   111.3018036   -16.5619202   179.8706970   
1475000000    -15.1106396   -155.5070038  31.2144108    -122.2080994  -54.1198387   111.6120987   -16.5801601   179.2380981   
1480000000    -15.1660204   -155.9131927  31.2015095    -122.8248978  -53.9298515   108.7922974   -16.5888500   178.8652954   
1485000000    -15.1699495   -155.9631958  31.1838608    -123.4120026  -57.0456810   100.9479980   -16.6336403   178.7751007   
1490000000    -15.2241697   -156.7424011  31.1672802    -124.0353012  -54.4035416   110.4317017   -16.6337509   178.0487976   
1495000000    -15.2385502   -157.0870972  31.1495609    -124.6569977  -55.6707191   109.1141968   -16.6356697   177.7946930   
1500000000    -15.2506104   -157.3946991  31.1352501    -125.2343979  -55.5248108   106.1967010   -16.6789093   177.5128937   
1505000000    -15.2716999   -157.6815948  31.1244602    -125.8044968  -55.2846909   108.3904037   -16.6918907   177.2888947   
1510000000    -15.1882401   -158.1490021  31.1216106    -126.4543991  -55.3451996   113.1988983   -16.6449909   177.3233948   
1515000000    -15.2378702   -159.3078003  31.0984402    -127.1804962  -53.3161392   104.5267029   -16.5838795   176.4913940   
1520000000    -15.3295803   -159.8191071  31.0727692    -127.7869034  -54.8399582   103.0503006   -16.5867805   175.6647034   
1525000000    -15.3981400   -160.3079071  31.0506001    -128.3831024  -54.9709091   99.8683472    -16.6320591   174.9797058   
1530000000    -15.4409399   -160.5592041  31.0315609    -128.9942932  -54.6337891   101.5875015   -16.6560802   174.4017944   
1535000000    -15.4671497   -161.0717926  31.0140991    -129.6217041  -55.8020287   103.2059021   -16.6744995   173.8744965   
1540000000    -15.4917402   -161.4990997  30.9936504    -130.2391968  -55.5069885   98.8882065    -16.6987896   173.4725952   
1545000000    -15.5285501   -162.0065002  30.9784107    -130.8377991  -55.2501183   102.5298004   -16.7143898   173.0605011   
1550000000    -15.5799503   -162.4553070  30.9554596    -131.4384003  -53.3688889   104.8518982   -16.6932106   172.3744049   
1555000000    -15.6346903   -162.7171936  30.9365406    -132.0653992  -54.7454796   104.0245972   -16.7591801   172.0236053   
1560000000    -15.6672497   -163.2642059  30.9147701    -132.6683044  -54.5552101   107.4704971   -16.7553501   171.4118958   
1565000000    -15.6993799   -163.8119049  30.8955593    -133.2774963  -53.9926414   108.1675034   -16.7682800   170.8029022   
1570000000    -15.7306805   -164.1665039  30.8735695    -133.8948975  -54.9239807   113.0811005   -16.7370796   170.3036957   
1575000000    -15.7921495   -164.5883942  30.8497105    -134.4911041  -54.3537598   104.5526962   -16.7907200   169.7230072   
1580000000    -15.8633204   -164.8847046  30.8300591    -135.0977020  -53.5474892   105.7167969   -16.8350601   168.9933014   
1585000000    -15.8966398   -165.2756958  30.8096199    -135.7109985  -53.5409088   103.6889038   -16.8325100   168.7165070   
1590000000    -15.9508495   -165.7541046  30.7877407    -136.3159027  -53.6070518   107.8207016   -16.8519001   167.9891052   
1595000000    -15.9713202   -166.2301941  30.7673206    -136.9105988  -53.6238899   99.8762207    -16.8400192   167.4125977   
1600000000    -16.0433502   -166.6499939  30.7465992    -137.5258942  -54.3222809   101.1214981   -16.8651104   166.6419067   
1605000000    -16.0958900   -166.9329987  30.7254200    -138.1213989  -53.8098488   105.1645966   -16.8852406   166.2539063   
1610000000    -16.1304207   -167.3475037  30.7026100    -138.7185974  -54.5820389   108.6205978   -16.9225292   165.7593994   
1615000000    -16.1675301   -167.8858032  30.6796303    -139.3542938  -53.9331589   99.6088867    -16.8948002   165.0334015   
1620000000    -16.2141304   -168.3688049  30.6548805    -139.9380951  -53.9381790   100.8590012   -16.9242306   164.3432007   
1625000000    -16.2878609   -168.6965027  30.6328697    -140.5433044  -53.9528999   98.2663727    -16.9648094   163.7619019   
1630000000    -16.3222103   -168.9810944  30.6090202    -141.1737061  -53.1990089   97.6920700    -16.9577503   163.0471039   
1635000000    -16.3978901   -169.4824066  30.5847492    -141.7859039  -53.7044983   100.2926025   -16.9449692   162.3928986   
1640000000    -16.4570007   -169.9178925  30.5579300    -142.3428955  -53.2073212   104.0970993   -16.9591007   161.6470032   
1645000000    -16.5393505   -170.2368927  30.5342503    -142.9561005  -53.2083092   99.9557419    -17.0039291   160.9797974   
1650000000    -16.5741806   -170.6947937  30.5078602    -143.5677032  -54.3084106   98.2772598    -16.9866199   160.5323944   
1655000000    -16.6422691   -171.0500031  30.4838200    -144.1524963  -53.7357407   103.9917984   -17.0069408   159.6024017   
1660000000    -16.6860809   -171.3954926  30.4590797    -144.7422943  -53.7457085   105.7449036   -17.0458107   158.7472992   
1665000000    -16.7569199   -171.8399048  30.4372005    -145.3553009  -53.5428314   97.3910522    -17.0410004   158.4109039   
1670000000    -16.8118591   -172.2001038  30.4186401    -145.9376984  -53.6993904   100.9225998   -17.0798302   157.7348938   
1675000000    -16.8884201   -172.6011963  30.3903599    -146.5359955  -53.0964699   102.1858978   -17.0928593   156.8977966   
1680000000    -16.9303093   -172.7774048  30.3632698    -147.1358032  -54.6585808   97.6220779    -17.1406307   155.9447021   
1685000000    -16.9856300   -173.4389038  30.3352108    -147.7375031  -53.8528595   102.2923965   -17.1400909   155.6018982   
1690000000    -17.0443001   -173.7863007  30.3075294    -148.3325958  -52.9833984   106.3719025   -17.1438293   154.8737946   
1695000000    -17.1203308   -174.1875000  30.2848701    -148.9241028  -53.3104515   102.8028030   -17.1698494   154.1882935   
1700000000    -17.1603603   -174.3852997  30.2565002    -149.5326996  -53.2656097   98.3403931    -17.2030392   153.3999939   
1705000000    -17.2441006   -174.9396057  30.2285595    -150.1127014  -52.9678116   101.0865021   -17.2107601   152.4660034   
1710000000    -17.2915306   -175.2080994  30.2005806    -150.6961060  -53.9454117   95.9854736    -17.2357807   151.8943024   
1715000000    -17.3809299   -175.8966980  30.1738396    -151.3027039  -53.8897896   90.3461533    -17.2261600   151.2675934   
1720000000    -17.4348602   -176.0650024  30.1443100    -151.8753052  -53.5219994   94.5378036    -17.2525997   150.3343048   
1725000000    -17.4794903   -176.5030060  30.1180191    -152.4709015  -52.7232399   100.7897034   -17.2753906   149.2832031   
1730000000    -17.5748291   -176.7615051  30.0852699    -153.0643005  -53.4546204   97.1159973    -17.2888298   148.4235992   
1735000000    -17.6701202   -177.1107941  30.0575695    -153.6293030  -53.0982590   97.9979095    -17.3209896   147.6313019   
1740000000    -17.6837997   -177.4945984  30.0282192    -154.2062988  -53.3226204   102.9814987   -17.3441010   146.7344971   
1745000000    -17.7891998   -177.8135986  29.9974899    -154.7877960  -53.5444489   95.6803970    -17.3596592   145.9698029   
1750000000    -17.8530693   -178.0545959  29.9687901    -155.3695068  -53.4222412   94.2119675    -17.3750992   145.0894928   
1755000000    -17.8759708   -178.3999023  29.9377499    -155.9707947  -54.0527191   90.6076736    -17.3803005   144.3065033   
1760000000    -18.0003510   -178.0252991  29.9111004    -156.5209045  -51.3377419   90.4018784    -17.3792496   143.3681030   
1765000000    -18.0435791   -178.9174042  29.8805809    -157.0814972  -52.9713402   93.1561508    -17.4068604   142.4716034   
1770000000    -18.1374092   -179.3699036  29.8501492    -157.6585999  -53.8140488   99.4918671    -17.4086399   141.7144012   
1775000000    -18.1947308   -179.5496063  29.8208809    -158.2467041  -53.5688705   94.3851013    -17.4290600   140.8052979   
1780000000    -18.2674809   -179.9107971  29.7934093    -158.8182068  -52.9272614   89.9510498    -17.4774208   139.8515015   
1785000000    -18.3521500   179.9170074   29.7637291    -159.3721008  -52.7290497   93.2314377    -17.4720993   138.9606934   
1790000000    -18.4167194   179.6307983   29.7308502    -159.9420013  -53.0973511   93.8716431    -17.4663696   138.0384979   
1795000000    -18.5004692   179.3209076   29.6972599    -160.4994965  -53.7014389   93.7637100    -17.4929600   137.2077026   
1800000000    -18.5798492   178.9156952   29.6696606    -161.0742950  -52.8475609   92.0001373    -17.5144596   136.5341949   
1805000000    -18.6234398   178.8148041   29.6469803    -161.6428986  -52.2244110   94.7503891    -17.5220909   135.8329926   
1810000000    -18.6091099   178.2655945   29.6218300    -162.2794037  -52.8293419   101.3429031   -17.4967403   135.3834076   
1815000000    -18.6832695   177.5684967   29.5763702    -162.9123993  -52.5501404   92.9200211    -17.4048405   134.0326996   
1820000000    -18.7747898   177.2940063   29.5421104    -163.3932037  -53.7236900   85.8803406    -17.4458599   132.7696075   
1825000000    -18.9183197   177.1932983   29.5071793    -163.9826965  -52.3415298   84.0745926    -17.4735794   131.6974945   
1830000000    -19.0392895   176.9508057   29.4774399    -164.5128937  -51.8698997   94.2790985    -17.4787197   130.8072052   
1835000000    -19.0978794   176.7575989   29.4440994    -165.0838013  -52.1902504   89.2232132    -17.4808598   130.0059967   
1840000000    -19.1653900   176.2570953   29.4118595    -165.6383057  -53.4259491   83.4602966    -17.4538002   129.1022034   
1845000000    -19.2908306   176.1692047   29.3723793    -166.2214966  -52.6933289   91.2534180    -17.4426193   127.9926987   
1850000000    -19.3552208   175.5410004   29.3446503    -166.7425995  -52.9393883   87.9071426    -17.4480705   127.0582962   
1855000000    -19.4530697   175.6927032   29.3062401    -167.3159943  -53.0108185   90.8263779    -17.4632492   126.0726013   
1860000000    -19.5654297   175.2673035   29.2759495    -167.8854065  -52.5281715   87.3828125    -17.4298496   125.0794983   
1865000000    -19.6511803   175.3683929   29.2419891    -168.4051971  -51.6590881   90.0918198    -17.4395294   124.1932983   
1870000000    -19.6986904   174.7156067   29.2124596    -168.9602966  -51.9878998   86.5768509    -17.4230099   123.2792969   
1875000000    -19.8216209   174.8213043   29.1780605    -169.4998932  -52.2994003   83.8194504    -17.4220505   122.3302002   
1880000000    -19.8881302   174.6062927   29.1442509    -170.0608063  -52.0268402   91.6640167    -17.4011192   121.4347992   
1885000000    -19.9933796   174.1707001   29.1035309    -170.6174011  -51.9173508   91.7532883    -17.4038391   120.4075012   
1890000000    -20.0794106   174.1459961   29.0698795    -171.1602936  -52.8369293   91.3505783    -17.3525200   119.4477005   
1895000000    -20.1822891   173.7409973   29.0369606    -171.7142944  -52.7589302   92.9475098    -17.3849602   118.3272018   
1900000000    -20.2528305   173.8522949   29.0010509    -172.2436066  -52.0306206   88.4961166    -17.3826103   117.4495010   
1905000000    -20.4068508   173.7122040   28.9662800    -172.7882996  -51.9180794   85.4360504    -17.3643208   116.7158966   
1910000000    -20.4834499   173.7940063   28.9350204    -173.3171997  -51.4906502   83.6242828    -17.3640404   115.6327972   
1915000000    -20.6068592   173.8961029   28.8975792    -173.8271027  -51.3992500   80.1388092    -17.3251896   114.5884018   
1920000000    -20.6739502   173.2660980   28.8617802    -174.3845978  -52.0477219   83.1885071    -17.3201103   113.7162018   
1925000000    -20.8223705   172.8123016   28.8295708    -174.9122009  -51.9409904   94.8587494    -17.2708797   112.7041016   
1930000000    -20.9164200   173.0184021   28.7901402    -175.4557037  -51.9729004   89.1474686    -17.2775192   111.5339966   
1935000000    -20.9511795   172.7286987   28.7572994    -176.0182037  -52.4215012   83.1676025    -17.2688007   110.7456970   
1940000000    -21.1183205   172.8717041   28.7245808    -176.5345001  -52.3587990   89.8242493    -17.2545300   109.7552032   
1945000000    -21.2068806   172.5494995   28.6912193    -177.0933990  -53.1065102   87.6837692    -17.2022800   108.7357025   
1950000000    -21.3123207   172.4689026   28.6499996    -177.6163940  -52.6468811   88.4853516    -17.1655102   107.9412003   
1955000000    -21.4100800   172.3385925   28.6148891    -178.1300964  -52.2298203   88.5772629    -17.1902599   106.9667969   
1960000000    -21.4819508   172.3717041   28.5840492    -178.6618958  -52.9035912   87.5099564    -17.1730194   106.0548019   
1965000000    -21.6159706   172.4208069   28.5416508    -179.1916046  -52.7738495   80.0641403    -17.1481609   105.1460037   
1970000000    -21.6708908   172.2032928   28.5073204    -179.6932983  -51.6871605   87.8896484    -17.1457901   104.2371979   
1975000000    -21.7330399   172.5314026   28.4801502    179.7424927   -52.8555183   82.6356583    -17.1773605   103.4007034   
1980000000    -21.6069107   172.5805969   28.4498596    179.1033020   -51.9871597   79.6591034    -17.0762691   103.3911972   
1985000000    -21.8515606   170.0525970   28.3814907    178.5626068   -51.7256012   89.6881409    -16.9034901   101.8908005   
1990000000    -22.1306992   170.5177002   28.3411808    178.1358032   -51.3008690   85.7788696    -16.9129791   100.3514023   
1995000000    -22.2478104   170.5805969   28.3040295    177.6210938   -51.9673500   84.7751007    -16.9249992   99.2882004    
2000000000    -22.3433399   170.8370056   28.2723503    177.1118927   -51.9356499   80.7854080    -16.8931808   98.3603821    
