!Mini-Circuits Laboratory
!S-Parameters
!Model: PMA-545G2+
!Run / Lot / Date Code: N/A / N/A / NA
!Fixture: NA; TEST BOARD: TB-607+
!AUTO PORT EXTENSION DONE: PORT<1>=120.99ps; PORT<2>=143.047ps
!Network Analyzer: PNA-X N5242A - 423 4 ports;  Serial number: 71256
!Date: 1/11/2011
!S/N: Unit# 3
!
# Hz  S  dB  R  50
!Frequency    S11 dB        S11 Deg       S21 dB        S21 Deg       S12 dB        S12 Deg       S22 dB        S22 Deg       
700000000     -15.9331799   -52.0403595   32.1999397    -21.3401699   -64.3680267   147.0238037   -16.9426994   -168.4925995  
705000000     -15.8465900   -52.9044991   32.1859207    -22.1714897   -64.2982483   130.7424927   -16.9070091   -168.3831024  
710000000     -15.7543898   -53.8270302   32.1838493    -22.9554596   -61.9630394   123.8108978   -16.9314594   -168.3804016  
715000000     -15.6582298   -54.4168510   32.1739311    -23.7421703   -63.3226395   124.8844986   -16.9517708   -168.2890015  
720000000     -15.5584402   -55.2391205   32.1640587    -24.5104008   -65.1270905   131.9514008   -16.9362392   -168.2799072  
725000000     -15.4514599   -56.1583405   32.1580009    -25.2926807   -64.4884872   139.1396942   -16.9831696   -168.2109985  
730000000     -15.3710299   -56.8664703   32.1495399    -26.0562401   -64.2951508   117.3282013   -16.9375305   -168.1634979  
735000000     -15.3054705   -57.8166199   32.1379204    -26.8260708   -60.8283195   122.6063995   -16.9228096   -167.9015961  
740000000     -15.2323303   -58.3656807   32.1270218    -27.5834904   -65.9203262   130.7729034   -16.9526691   -168.1405029  
745000000     -15.1638403   -59.2070999   32.1233406    -28.3184299   -63.2409286   115.6790009   -16.9315491   -168.0726929  
750000000     -15.0781403   -59.9704094   32.1158104    -29.0747299   -64.6382599   132.7949982   -16.9413700   -167.8739929  
755000000     -15.0612202   -60.7928581   32.1074791    -29.8437309   -68.3378220   100.7609024   -16.9640903   -167.9356995  
760000000     -14.9884996   -61.5346107   32.1011391    -30.5692291   -63.2908401   126.1845016   -16.9390106   -167.9344025  
765000000     -14.9333696   -62.1931992   32.0900116    -31.2775803   -65.0668488   126.7025986   -16.9482002   -167.6954041  
770000000     -14.8344297   -63.0404701   32.0839005    -32.0357590   -67.3255920   165.9362946   -16.9537506   -167.8563995  
775000000     -14.8091898   -63.8140297   32.0774193    -32.7522888   -67.2577972   102.9177017   -16.9564495   -167.5516968  
780000000     -14.7442799   -64.4914169   32.0656204    -33.4621010   -65.6200333   143.1143951   -16.9689102   -167.7779999  
785000000     -14.6932802   -65.2165680   32.0599594    -34.1697197   -63.5079117   117.4581985   -16.9691696   -167.7183075  
790000000     -14.6489801   -65.9244003   32.0540810    -34.8848190   -64.9378128   102.5243988   -16.9742107   -167.5903931  
795000000     -14.6157103   -66.7941437   32.0449600    -35.6020317   -63.5191498   132.6268005   -17.0076904   -167.6705017  
800000000     -14.5564604   -67.3005371   32.0420113    -36.2999992   -64.9875565   153.8401031   -17.0414391   -167.5960999  
805000000     -14.5127296   -68.1611481   32.0409889    -36.9729195   -63.5583916   135.1423035   -17.0280800   -167.3161926  
810000000     -14.4872303   -68.9098511   32.0305595    -37.7125816   -62.0037384   131.9158936   -16.9872093   -167.4384003  
815000000     -14.4525299   -69.6928101   32.0241890    -38.4220009   -62.0410309   129.9873047   -17.0066109   -167.4279022  
820000000     -14.4325399   -70.4226227   32.0188484    -39.1084595   -64.8434677   148.4754028   -17.0307503   -167.6082001  
825000000     -14.3961897   -70.9954987   32.0093193    -39.7818604   -63.0439415   138.6940002   -16.9916706   -167.5171051  
830000000     -14.3645897   -71.8293915   32.0079689    -40.4797096   -63.1755104   124.6819000   -17.0230598   -167.7548981  
835000000     -14.3596201   -72.3833237   31.9990501    -41.1562119   -62.8496094   129.2131042   -17.0247707   -167.5343933  
840000000     -14.3073502   -73.0881500   31.9954491    -41.8507690   -60.8760109   130.3876038   -17.0585308   -167.5523071  
845000000     -14.3209105   -73.9746323   31.9885292    -42.5212593   -62.6219597   132.3348999   -17.0467606   -167.5803986  
850000000     -14.2733603   -74.6857529   31.9845200    -43.2148094   -63.1077309   117.8694992   -17.0181408   -167.5182037  
855000000     -14.2564402   -75.4062424   31.9778709    -43.8987999   -63.8422890   130.6439056   -17.0317593   -167.5155029  
860000000     -14.2372503   -76.2755737   31.9724808    -44.5676498   -63.2655487   122.9860001   -17.0376301   -167.5305939  
865000000     -14.2224703   -76.8307037   31.9675102    -45.2266197   -65.0419464   140.8489990   -17.0522308   -167.4141998  
870000000     -14.1627998   -77.5771332   31.9650402    -45.8906898   -62.1243896   121.1854019   -17.0438709   -167.2937927  
875000000     -14.1472397   -78.3010635   31.9573307    -46.5609818   -60.8604393   115.4058990   -17.0375710   -167.5305023  
880000000     -14.1396999   -79.0715866   31.9516296    -47.2411690   -60.5490799   132.8166046   -17.0151806   -167.2458954  
885000000     -14.1284103   -79.6563873   31.9484692    -47.9168510   -64.0675735   125.8413010   -17.0502605   -167.1231995  
890000000     -14.1228399   -80.3595734   31.9453793    -48.5492516   -62.1763382   126.0063019   -17.0435200   -167.3289948  
895000000     -14.0812302   -81.0047073   31.9344292    -49.2328300   -63.0046082   124.2774963   -17.0308895   -167.4243011  
900000000     -14.0882902   -81.8063431   31.9287796    -49.8721886   -63.4912987   127.5888977   -17.0336800   -167.2973938  
905000000     -14.0623798   -82.5042572   31.9248695    -50.5394783   -64.7603683   123.9446030   -17.0301991   -167.2162018  
910000000     -14.0660105   -83.1962585   31.9247494    -51.1670990   -62.4408684   126.6132965   -17.0280399   -167.0823059  
915000000     -14.0474501   -83.8678894   31.9145298    -51.8371506   -63.6375504   123.5012970   -17.0087509   -167.2017059  
920000000     -14.0389900   -84.4552765   31.9124508    -52.4925003   -64.3691177   134.9174957   -17.0433598   -167.2389069  
925000000     -14.0176201   -85.2975464   31.9072895    -53.1330605   -60.6539192   116.4373016   -17.0258408   -167.0771027  
930000000     -13.9780798   -85.8400116   31.9051991    -53.7736588   -59.3070412   131.5119934   -17.0122108   -166.8106995  
935000000     -13.9983997   -86.4834137   31.8984509    -54.3978806   -61.5608406   136.7680969   -17.0428505   -167.0440979  
940000000     -14.0195799   -87.2933731   31.8947601    -55.0977097   -60.4579391   109.2180023   -16.9971809   -167.1201935  
945000000     -13.9759302   -87.8802338   31.8878002    -55.7159805   -62.0388107   135.7440033   -17.0052299   -166.8925018  
950000000     -13.9914303   -88.6394119   31.8834705    -56.3404808   -60.7849388   117.5397034   -17.0197792   -166.8643036  
955000000     -13.9704103   -89.4461517   31.8791599    -56.9847908   -61.0430298   147.7841949   -17.0085392   -166.8276978  
960000000     -13.9777899   -89.9157867   31.8725700    -57.6152496   -62.4459991   132.4635010   -17.0403194   -166.7138062  
965000000     -13.9673204   -90.6661682   31.8699799    -58.2615089   -62.0123100   125.8229980   -17.0290794   -166.7543030  
970000000     -13.9693804   -91.2002335   31.8673401    -58.8677292   -60.2128296   136.1860046   -17.0483208   -166.8784027  
975000000     -13.9540501   -91.9025269   31.8597603    -59.5215416   -60.9889793   115.8848038   -17.0294991   -166.9485016  
980000000     -13.9609499   -92.5731506   31.8566093    -60.1264915   -59.2202606   123.6085968   -17.0289307   -166.6835022  
985000000     -13.9748697   -93.2423782   31.8550797    -60.7853394   -62.2713585   111.2537003   -17.0440407   -166.7406006  
990000000     -13.9479599   -93.9729691   31.8499107    -61.3860588   -60.8092384   125.8594971   -17.0233307   -166.6215973  
995000000     -13.9499502   -94.6113968   31.8487606    -62.0346107   -60.0030785   130.4476929   -17.0104504   -166.6398926  
1000000000    -13.9572401   -95.2377625   31.8426609    -62.6629791   -62.8873291   127.4532013   -17.0094891   -166.6562042  
1005000000    -13.9842300   -95.8700485   31.8392696    -63.3003616   -58.1819191   129.1647034   -16.9914894   -166.5558014  
1010000000    -13.9638395   -96.5833588   31.8364201    -63.9055595   -61.4482002   123.9912033   -17.0018597   -166.6985931  
1015000000    -13.9610796   -97.2087936   31.8288803    -64.5416565   -62.0878410   111.6938019   -17.0100403   -166.7102966  
1020000000    -13.9926100   -97.8792725   31.8284893    -65.1730728   -59.5721817   110.6539993   -16.9934196   -166.7012939  
1025000000    -13.9634199   -98.5843964   31.8242092    -65.7882538   -59.9313202   109.1432037   -17.0105305   -166.5816040  
1030000000    -13.9898100   -99.2064819   31.8182793    -66.4330215   -61.0692787   109.7528000   -16.9760799   -166.6674957  
1035000000    -14.0005999   -99.9190521   31.8205891    -67.0478210   -62.2950096   102.3442993   -16.9983597   -166.5023956  
1040000000    -13.9865303   -100.5737000  31.8129005    -67.6612167   -59.8788490   118.4483032   -16.9788208   -166.6463928  
1045000000    -14.0094299   -101.1294022  31.8095398    -68.2926178   -61.1122513   127.3350983   -16.9832191   -166.4456940  
1050000000    -14.0257998   -101.9074020  31.8062801    -68.9004822   -58.6997604   114.4222031   -16.9836502   -166.4589996  
1055000000    -14.0126200   -102.5921021  31.8011303    -69.5331497   -59.2471886   137.7633972   -17.0066509   -166.6647034  
1060000000    -14.0401201   -103.2710037  31.7973404    -70.1465378   -58.7597389   122.0095978   -16.9835205   -166.6136017  
1065000000    -14.0393400   -103.9442978  31.7926006    -70.7619781   -60.0255318   133.3894043   -16.9946804   -166.6640930  
1070000000    -14.0600996   -104.5408020  31.7911091    -71.3862762   -58.5222816   116.9567032   -16.9766102   -166.6683044  
1075000000    -14.0649099   -105.2677002  31.7836704    -72.0174026   -61.2975197   141.0411072   -16.9976006   -166.7955933  
1080000000    -14.0963602   -105.8656998  31.7800407    -72.6250916   -61.5065918   114.9949036   -16.9712505   -166.9573059  
1085000000    -14.0951700   -106.5373993  31.7779102    -73.2518616   -58.3539810   120.0420990   -16.9470100   -167.0135040  
1090000000    -14.1026802   -107.3018036  31.7761402    -73.8618393   -57.7389603   121.9394989   -16.9293499   -167.1336975  
1095000000    -14.1225100   -108.0274963  31.7698898    -74.4992828   -61.3718491   113.0953979   -16.9198399   -167.0054016  
1100000000    -14.1342602   -108.6318970  31.7663097    -75.1002731   -58.6546593   118.7306976   -16.9291191   -167.0175018  
1105000000    -14.1518602   -109.3319016  31.7632198    -75.7510834   -61.4090881   108.2347031   -16.9367599   -167.2857971  
1110000000    -14.1511202   -109.9539032  31.7581806    -76.3616028   -59.7035599   116.1468964   -16.9257202   -167.1022034  
1115000000    -14.1520996   -110.6264038  31.7550297    -76.9604568   -60.7429199   130.0807037   -16.9450607   -167.2409973  
1120000000    -14.1778498   -111.4150009  31.7485008    -77.5849762   -57.7268105   126.1981964   -16.9226799   -167.2393036  
1125000000    -14.1968298   -111.9571991  31.7441406    -78.1957321   -61.2560196   119.5606003   -16.9552097   -167.3791962  
1130000000    -14.1985302   -112.7929993  31.7419701    -78.8218765   -61.1897697   108.5524979   -16.9588795   -167.1616058  
1135000000    -14.1756601   -113.5198975  31.7408695    -79.4239883   -58.0251198   122.0409012   -16.8829708   -167.1858063  
1140000000    -14.1861601   -114.2350006  31.7406597    -80.0571136   -59.9653015   120.4867020   -16.8540897   -167.4481049  
1145000000    -14.2021198   -115.0282974  31.7301807    -80.6829529   -58.1957703   118.1244965   -16.8431606   -167.6231995  
1150000000    -14.2224197   -115.7754974  31.7230492    -81.3145523   -58.4070091   124.1203995   -16.8272305   -167.8305969  
1155000000    -14.2454700   -116.4054031  31.7201805    -81.9489594   -59.3856506   108.5746002   -16.8297100   -167.8713989  
1160000000    -14.2301102   -117.1119003  31.7116203    -82.5648270   -59.7869301   120.8004990   -16.7987003   -168.0677032  
1165000000    -14.2435303   -117.8539963  31.7052002    -83.1855164   -59.3821487   122.0388031   -16.7910709   -168.2525940  
1170000000    -14.2617702   -118.6504974  31.6983395    -83.8084030   -59.3488197   124.4497986   -16.7718506   -168.3816071  
1175000000    -14.2606401   -119.2479019  31.6927795    -84.4288101   -60.6290016   111.5880966   -16.7490692   -168.3771057  
1180000000    -14.2929602   -119.9597015  31.6879902    -85.0469208   -57.5878296   118.2863007   -16.7617207   -168.5411987  
1185000000    -14.2863503   -120.6055984  31.6843700    -85.6396637   -58.1007805   118.4914017   -16.7449703   -168.5337982  
1190000000    -14.3028202   -121.4095001  31.6791592    -86.2746124   -59.3844414   121.0537033   -16.7266293   -168.7322998  
1195000000    -14.2992697   -121.9318008  31.6723499    -86.8908997   -57.8289909   117.7839966   -16.7070408   -168.7808990  
1200000000    -14.3048401   -122.6724014  31.6668701    -87.5037689   -57.4644585   125.8248978   -16.6800404   -168.7463074  
1205000000    -14.2974195   -123.4195023  31.6616592    -88.1275787   -56.6374092   117.6918030   -16.6674995   -168.9237061  
1210000000    -14.3297501   -124.0410995  31.6526299    -88.7624130   -58.5936508   116.8104019   -16.6573009   -169.1419067  
1215000000    -14.3431702   -124.6940002  31.6490402    -89.4005890   -58.8408318   113.1769028   -16.6586094   -169.3470001  
1220000000    -14.3534203   -125.3699036  31.6367397    -90.0086670   -57.2704887   108.7077026   -16.6544895   -169.4850006  
1225000000    -14.3556499   -126.1965027  31.6322708    -90.6404572   -56.5413399   120.0177994   -16.6121902   -169.5451965  
1230000000    -14.3387098   -126.7006989  31.6236706    -91.2547226   -58.0205917   116.5702972   -16.5962009   -169.6640930  
1235000000    -14.3761797   -127.4707031  31.6170292    -91.8424988   -56.6525116   115.9599991   -16.6079292   -169.7864075  
1240000000    -14.3432503   -128.0634003  31.6100998    -92.4527969   -58.9088097   114.0195999   -16.5663891   -169.8094025  
1245000000    -14.3522701   -128.6851044  31.6058102    -93.0718994   -58.7626190   121.2638016   -16.5497494   -169.9436951  
1250000000    -14.3694696   -129.3267975  31.5975800    -93.6948166   -58.3821106   117.5081024   -16.5361900   -170.1524963  
1255000000    -14.3749199   -129.9029999  31.5885296    -94.3158035   -58.6422997   127.4284973   -16.5282307   -170.3289032  
1260000000    -14.3684597   -130.5023956  31.5801697    -94.9339600   -57.5289803   112.6070023   -16.5133400   -170.3820038  
1265000000    -14.3971596   -131.2207031  31.5716000    -95.5338516   -56.3689690   119.7030029   -16.5177708   -170.4452972  
1270000000    -14.3769102   -131.7411041  31.5695000    -96.1638184   -58.1246300   122.2182999   -16.5005302   -170.3889008  
1275000000    -14.3528795   -132.4006042  31.5639706    -96.7832031   -57.0837784   123.3581009   -16.4242592   -170.3946075  
1280000000    -14.3805704   -133.2167969  31.5506897    -97.4427490   -57.5845299   110.4420013   -16.4049702   -170.9555969  
1285000000    -14.4234800   -133.7610016  31.5404396    -98.0345230   -58.1962395   115.4264984   -16.4264507   -171.2079926  
1290000000    -14.4331198   -134.3229065  31.5300598    -98.6615524   -55.3795509   117.6106033   -16.3882504   -171.0070953  
1295000000    -14.4241600   -134.8796997  31.5188198    -99.2684631   -57.7944717   122.5022964   -16.4240303   -171.2884064  
1300000000    -14.4350405   -135.4656067  31.5118103    -99.9076691   -56.0258293   116.1341019   -16.3745708   -171.5285950  
1305000000    -14.4447899   -136.1490021  31.5018406    -100.5207977  -57.0030708   120.8757019   -16.4024391   -171.4362946  
1310000000    -14.4672298   -136.6239929  31.4926205    -101.1454010  -56.6495209   114.5631027   -16.3936100   -171.8822937  
1315000000    -14.4654303   -137.2971039  31.4846401    -101.7266006  -57.2456284   122.9168015   -16.3788700   -171.8267059  
1320000000    -14.5009499   -137.6996002  31.4734306    -102.3487015  -56.1951790   112.1463013   -16.3854008   -172.0023956  
1325000000    -14.4882202   -138.4241028  31.4628601    -102.9789963  -57.3137207   120.1087036   -16.3582897   -172.3482971  
1330000000    -14.5121603   -139.0585938  31.4540005    -103.5990982  -57.0990982   112.9572983   -16.3677597   -172.4080963  
1335000000    -14.5195904   -139.4875031  31.4409809    -104.1942978  -57.1142311   103.8796997   -16.3505096   -172.4057007  
1340000000    -14.5336905   -140.0278931  31.4324398    -104.8144989  -55.9935608   109.8295975   -16.3306408   -172.6071014  
1345000000    -14.5600595   -140.5301971  31.4218102    -105.4125977  -55.3325119   116.9736023   -16.3240395   -172.8827972  
1350000000    -14.5677099   -141.1443939  31.4100208    -106.0397034  -57.2843094   120.6393967   -16.3382492   -173.2055969  
1355000000    -14.5646095   -141.7030945  31.4013691    -106.6632996  -56.4050102   111.7192993   -16.3205299   -173.3672028  
1360000000    -14.5972099   -142.3578949  31.3891792    -107.2703018  -55.4051399   115.2914963   -16.3247108   -173.5843964  
1365000000    -14.6164398   -142.8632965  31.3804092    -107.8740005  -55.2812309   112.0589981   -16.3220005   -173.5646057  
1370000000    -14.6396303   -143.2868042  31.3662701    -108.4934998  -58.3088188   106.1518021   -16.3569603   -173.9035034  
1375000000    -14.6529503   -143.8567047  31.3588600    -109.1206970  -55.9309883   111.8357010   -16.3350391   -174.1311951  
1380000000    -14.6801796   -144.3459930  31.3459606    -109.7090988  -56.4424210   111.5879974   -16.3294392   -174.3992004  
1385000000    -14.6839895   -144.9300995  31.3351707    -110.3490982  -57.6698189   116.5577011   -16.3343391   -174.5534973  
1390000000    -14.7200403   -145.5744934  31.3200798    -110.9589996  -56.8885918   111.3983994   -16.3417206   -174.8264008  
1395000000    -14.7168903   -146.0243988  31.3106308    -111.5888977  -56.0706291   110.6458969   -16.3311691   -175.1208954  
1400000000    -14.7295704   -146.5906982  31.2987309    -112.1899033  -55.8747711   116.7567978   -16.3341999   -175.4548035  
1405000000    -14.7681198   -147.1871948  31.2838707    -112.7787018  -55.2411919   116.3604965   -16.3479309   -175.7982025  
1410000000    -14.7853098   -147.6490021  31.2715397    -113.4132996  -56.1992111   113.3442993   -16.3591099   -176.0343933  
1415000000    -14.7961397   -148.1773071  31.2623692    -114.0158997  -56.1009789   109.7080994   -16.3689404   -176.0258026  
1420000000    -14.8285599   -148.6423950  31.2485409    -114.6452026  -55.0990295   108.8479996   -16.3739491   -176.4317932  
1425000000    -14.8362904   -149.4181061  31.2332497    -115.2632980  -55.7848206   121.9393997   -16.3596401   -176.8202057  
1430000000    -14.8717604   -149.8278961  31.2220097    -115.8759003  -55.8311806   115.1277008   -16.3705807   -177.1811981  
1435000000    -14.8984604   -150.1625977  31.2093601    -116.4906998  -54.6436195   105.1416016   -16.3973808   -177.5061035  
1440000000    -14.9187899   -150.7449951  31.1934891    -117.1169968  -55.6594505   103.8029022   -16.3901005   -177.7637024  
1445000000    -14.9484901   -151.2115936  31.1807308    -117.7136993  -56.4438705   110.3470001   -16.3878002   -178.0498962  
1450000000    -14.9716101   -151.5832062  31.1649094    -118.3475037  -54.4562492   110.1623993   -16.4126892   -178.3813934  
1455000000    -15.0070000   -152.2406006  31.1506405    -118.9673004  -55.3205109   102.3938980   -16.4169006   -178.8610992  
1460000000    -15.0156698   -152.4938049  31.1350708    -119.5547028  -56.0353394   110.1384964   -16.4415207   -179.1385040  
1465000000    -15.0609999   -153.2424011  31.1186600    -120.1763000  -54.6070290   107.1216965   -16.4515495   -179.5251007  
1470000000    -15.0867100   -153.6071930  31.1053200    -120.8108978  -55.2971191   102.9216003   -16.4530392   -179.9785004  
1475000000    -15.0915604   -154.1407928  31.0872803    -121.3986969  -54.6024017   112.9543991   -16.4709091   179.6739044   
1480000000    -15.1098499   -154.5845032  31.0745792    -122.0277023  -55.3705215   110.2702026   -16.4818897   179.2079010   
1485000000    -15.1508102   -154.8943939  31.0576992    -122.6139984  -55.3252907   105.8498001   -16.4939899   178.8500977   
1490000000    -15.1957102   -155.5028992  31.0413399    -123.2414017  -55.2792397   103.9577026   -16.5028706   178.4754028   
1495000000    -15.2255096   -155.8854980  31.0229492    -123.8589020  -54.9651604   112.3177032   -16.5133400   177.8777008   
1500000000    -15.2206402   -156.2337952  31.0101604    -124.4353027  -55.3575211   105.9007034   -16.5378799   177.8498993   
1505000000    -15.2454901   -156.5666046  31.0002499    -125.0129013  -56.5786705   105.3531036   -16.5651894   177.6345978   
1510000000    -15.1652699   -156.8587036  30.9971008    -125.6546021  -54.8190002   104.9067001   -16.5241203   177.6385040   
1515000000    -15.2086897   -158.1018982  30.9752102    -126.3807983  -53.3296204   113.2412033   -16.4603004   176.5007935   
1520000000    -15.3043203   -158.6600952  30.9494095    -126.9907990  -54.5323906   106.1530991   -16.4752903   175.8925018   
1525000000    -15.3770704   -159.0621033  30.9293003    -127.5860977  -55.9806290   111.9251022   -16.5246906   175.1307983   
1530000000    -15.4196301   -159.3607025  30.9088802    -128.1956024  -53.3416595   100.0495987   -16.5212708   174.5959015   
1535000000    -15.4521799   -159.8428040  30.8920994    -128.8231049  -54.6417084   103.2087021   -16.5376606   174.2209015   
1540000000    -15.4664497   -160.3166962  30.8740807    -129.4467010  -54.5066299   102.8134995   -16.5607700   173.7274933   
1545000000    -15.4862499   -160.7816925  30.8590298    -130.0475006  -54.4575310   113.5795975   -16.5696793   173.4931030   
1550000000    -15.5431900   -161.2077026  30.8354702    -130.6421051  -54.4312706   109.8994980   -16.5886002   172.9698944   
1555000000    -15.6118498   -161.4947052  30.8161697    -131.2731934  -54.5843315   99.9920197    -16.6222305   172.1988983   
1560000000    -15.6319504   -161.9212952  30.7960091    -131.8724976  -54.6430702   105.2680969   -16.6318092   171.7666016   
1565000000    -15.6871204   -162.4857941  30.7767105    -132.4850006  -54.1740990   105.4946976   -16.6365299   171.1282959   
1570000000    -15.7153502   -162.9263000  30.7555504    -133.1009064  -54.5998993   103.0121002   -16.6245098   170.6184998   
1575000000    -15.7659798   -163.2209930  30.7328606    -133.7010956  -53.7863884   98.3211136    -16.6772099   170.0794983   
1580000000    -15.8119097   -163.6204987  30.7122803    -134.3067017  -53.7191086   103.1771011   -16.6679592   169.4792023   
1585000000    -15.8538799   -164.2133942  30.6929607    -134.9306946  -53.8470993   104.9369965   -16.6745892   168.7247925   
1590000000    -15.9034796   -164.6372070  30.6725693    -135.5281067  -54.9188309   101.8495026   -16.6656704   168.2142029   
1595000000    -15.9605799   -164.8955994  30.6516094    -136.1390076  -53.1862984   103.8377991   -16.7221203   167.7404938   
1600000000    -16.0040302   -165.2192993  30.6305504    -136.7445068  -54.1769714   101.9616013   -16.7378998   167.1396027   
1605000000    -16.0771103   -165.6510010  30.6095600    -137.3354034  -54.5094109   103.8071976   -16.7355995   166.5310059   
1610000000    -16.0999699   -166.1273956  30.5880909    -137.9459076  -53.6368713   99.9387131    -16.7618008   165.9051056   
1615000000    -16.1595192   -166.5290070  30.5660706    -138.5870972  -53.9541702   96.8947906    -16.7542191   165.3135986   
1620000000    -16.1769199   -167.0630951  30.5400391    -139.1775970  -54.6746788   102.1307983   -16.7889404   164.7286072   
1625000000    -16.2430000   -167.5386963  30.5190697    -139.7790985  -52.7960701   108.5201035   -16.7591591   164.1914063   
1630000000    -16.2914791   -167.9667053  30.4946594    -140.3972015  -52.2856293   103.5007019   -16.7653503   163.3666992   
1635000000    -16.3624496   -168.1244965  30.4713993    -141.0036926  -53.6248817   100.6150970   -16.8092098   162.7832947   
1640000000    -16.4387207   -168.4109955  30.4453106    -141.5644989  -53.2066002   94.2434387    -16.8671398   162.2622986   
1645000000    -16.4756508   -168.7693024  30.4212894    -142.1768951  -53.2400703   93.5711975    -16.8695202   161.6197968   
1650000000    -16.5565395   -169.1869049  30.3967896    -142.7944031  -53.7225685   100.6999969   -16.8588600   160.8061981   
1655000000    -16.6300907   -169.5762939  30.3726406    -143.3816071  -52.4971695   101.6518021   -16.9071693   159.9990997   
1660000000    -16.6591206   -169.9187012  30.3482304    -143.9716949  -53.5391693   97.8786774    -16.9027004   159.4161987   
1665000000    -16.7187099   -170.3379974  30.3258495    -144.5863953  -53.3135605   100.0843964   -16.9111309   158.8327942   
1670000000    -16.7734394   -170.7507019  30.3066807    -145.1585999  -52.7868805   102.2323990   -16.9520607   158.1549072   
1675000000    -16.8215904   -171.0980988  30.2789192    -145.7608948  -52.9642601   98.2960129    -16.9381409   157.3791046   
1680000000    -16.9269199   -171.4109039  30.2535591    -146.3764038  -52.6129189   99.2531967    -16.9674606   156.8123932   
1685000000    -16.9777107   -171.9427948  30.2250500    -146.9739990  -53.2328796   98.3325882    -16.9732895   156.0023041   
1690000000    -17.0129910   -172.2774963  30.1987591    -147.5619965  -53.2464600   101.0131989   -17.0011406   155.2290955   
1695000000    -17.0795994   -172.6183929  30.1760101    -148.1524963  -52.8963089   100.6698990   -17.0061493   154.5980988   
1700000000    -17.1269302   -172.9169006  30.1498508    -148.7624054  -53.5140114   94.9512177    -17.0437298   153.9156036   
1705000000    -17.2095509   -173.5095062  30.1215496    -149.3426056  -53.4250984   96.9149628    -17.0556793   153.0072021   
1710000000    -17.2491608   -173.7492981  30.0939293    -149.9313049  -53.0418816   97.3729477    -17.0648594   152.2705994   
1715000000    -17.3441601   -174.3168030  30.0670891    -150.5312042  -52.8491707   94.5760498    -17.0863304   151.3851929   
1720000000    -17.4081593   -174.7319946  30.0381603    -151.1177063  -53.2666092   96.0681992    -17.0942402   150.7053070   
1725000000    -17.4673901   -174.9429016  30.0137291    -151.7102966  -52.8410416   95.2161865    -17.1188393   149.9082947   
1730000000    -17.5545006   -175.4528046  29.9810200    -152.3085022  -51.7528305   96.5361099    -17.1578903   148.9553070   
1735000000    -17.6164703   -175.5941925  29.9526806    -152.8699951  -52.6031189   89.7284317    -17.1480904   148.2326050   
1740000000    -17.7292500   -175.8334045  29.9234295    -153.4595032  -51.8294411   90.7732315    -17.1685600   147.4848022   
1745000000    -17.7766895   -176.3605957  29.8944397    -154.0357056  -52.2553406   95.0592117    -17.1666107   146.5590057   
1750000000    -17.8502197   -176.2005005  29.8659306    -154.6033936  -52.5670090   91.4106216    -17.2139397   145.5261993   
1755000000    -17.9223194   -177.0102997  29.8356304    -155.2066040  -52.6652603   99.0659332    -17.1974297   144.7664948   
1760000000    -17.9447994   -176.8292999  29.8099003    -155.7689972  -52.5702515   86.4764633    -17.2290497   144.0018005   
1765000000    -18.0478401   -177.2185974  29.7789898    -156.3260040  -52.3202095   98.3132629    -17.2282696   143.0095978   
1770000000    -18.0961704   -177.4989929  29.7499104    -156.9024048  -52.2620506   100.6242981   -17.2621593   142.1230927   
1775000000    -18.1819496   -178.0366974  29.7201099    -157.4985962  -53.6845207   98.5037689    -17.2448196   141.2837067   
1780000000    -18.2413292   -178.4494934  29.6916199    -158.0704041  -51.9368401   88.9907303    -17.3119392   140.5070953   
1785000000    -18.3241005   -178.4436951  29.6638699    -158.6295013  -53.3162384   94.5294418    -17.3155899   139.6195068   
1790000000    -18.3968391   -178.7129974  29.6298809    -159.1927948  -53.3821907   91.9553986    -17.3056393   138.6681061   
1795000000    -18.4710503   -179.0431976  29.5974293    -159.7552948  -51.9170685   95.0802231    -17.3573494   137.9346008   
1800000000    -18.5305500   -179.4609070  29.5697708    -160.3356018  -52.8715401   92.7319794    -17.3417892   137.0305939   
1805000000    -18.5764904   -179.2445068  29.5485992    -160.9078064  -52.9903297   83.8644638    -17.3775806   136.6298065   
1810000000    -18.5638409   -179.8497009  29.5225296    -161.5370941  -52.4941711   92.7607727    -17.3347092   135.9674072   
1815000000    -18.6576691   179.1535034   29.4762096    -162.1755981  -52.7368813   92.9813232    -17.2333508   134.7017975   
1820000000    -18.7968597   179.0401001   29.4440708    -162.6504059  -51.6828690   88.2783508    -17.2917900   133.3173981   
1825000000    -18.9011497   178.6490936   29.4094296    -163.2588959  -52.3097610   95.8080826    -17.2797508   132.2700043   
1830000000    -18.9664097   178.5520935   29.3796597    -163.7911072  -52.5130882   82.9730835    -17.3143501   131.6091003   
1835000000    -19.0384007   178.3260040   29.3479404    -164.3578949  -52.3494415   84.5523987    -17.3194904   130.7113037   
1840000000    -19.1537991   178.0827026   29.3157291    -164.9071045  -52.6815491   95.9251175    -17.2951393   129.7595062   
1845000000    -19.2810898   177.7787933   29.2782307    -165.4934998  -51.8877716   100.5435028   -17.3219891   128.6161041   
1850000000    -19.3668995   177.3459015   29.2483692    -166.0238037  -51.6464386   90.9161072    -17.2827396   127.8130035   
1855000000    -19.4016609   177.2812958   29.2122498    -166.5924072  -52.9973488   89.2269516    -17.2861099   126.8526993   
1860000000    -19.5474205   176.9687958   29.1819801    -167.1526031  -51.9421692   88.5531921    -17.2830009   125.7984009   
1865000000    -19.6451797   177.0782928   29.1480293    -167.6923065  -51.8964195   91.6071014    -17.2760105   124.7703018   
1870000000    -19.6863708   176.7250977   29.1187992    -168.2463074  -52.7514915   83.0742722    -17.2858391   124.1194992   
1875000000    -19.7953796   176.6432037   29.0836105    -168.7828979  -51.8636818   82.9232330    -17.2749996   123.0502014   
1880000000    -19.8630409   176.5316925   29.0520992    -169.3446960  -52.6110001   88.8910370    -17.2560806   122.3672028   
1885000000    -19.9742699   176.1107025   29.0120106    -169.9028931  -52.2021713   95.6020889    -17.2449703   121.0904007   
1890000000    -20.0398998   176.0509033   28.9766006    -170.4499969  -52.8429909   84.8486481    -17.1996498   120.3863983   
1895000000    -20.1302109   175.7216949   28.9442806    -170.9933014  -52.8607407   85.4722900    -17.2243195   119.3842010   
1900000000    -20.2085991   175.8536987   28.9089394    -171.5422974  -52.9250793   79.1524811    -17.1907406   118.4381027   
1905000000    -20.3166199   175.5558929   28.8742104    -172.0746002  -52.5638199   83.7837830    -17.2018299   117.3691025   
1910000000    -20.4323902   175.5843048   28.8433990    -172.6114960  -52.4700890   87.5812378    -17.2094193   116.3996964   
1915000000    -20.5693893   175.4060974   28.8060894    -173.1334991  -52.2820587   86.6316299    -17.1824493   115.4309998   
1920000000    -20.6330299   175.0634003   28.7707996    -173.6795959  -52.4920502   82.8749695    -17.1644592   114.4158020   
1925000000    -20.7657204   175.1851044   28.7379208    -174.2185059  -51.2519417   87.9730301    -17.1406498   113.4550018   
1930000000    -20.8563194   175.1719971   28.7008991    -174.7561951  -51.3379288   84.9248734    -17.1362591   112.5162964   
1935000000    -20.8698196   174.8404999   28.6686993    -175.3271027  -51.7066307   79.7183380    -17.1172295   111.6090012   
1940000000    -20.9842091   174.8914032   28.6355801    -175.8388062  -50.8979683   82.1495438    -17.1182404   110.6557999   
1945000000    -21.1052303   174.6172028   28.6027107    -176.3952942  -51.7349510   87.6176987    -17.0783005   109.6893005   
1950000000    -21.2486496   174.4696960   28.5598106    -176.9299927  -52.2324219   88.8416901    -17.0580406   108.6948013   
1955000000    -21.3660393   174.7093964   28.5269299    -177.4391937  -52.2704811   85.3765869    -17.0412807   107.9115982   
1960000000    -21.4096508   174.5308075   28.4953308    -177.9806976  -51.1949387   74.3932495    -17.0330200   107.1607971   
1965000000    -21.5125103   174.6251984   28.4535007    -178.5019989  -51.9823494   84.0079269    -17.0146809   105.9216003   
1970000000    -21.6557007   174.5399017   28.4204998    -179.0205994  -51.7547188   88.3643570    -16.9903908   105.0410995   
1975000000    -21.6531906   174.8621063   28.3938198    -179.5796051  -52.2738991   84.6625366    -17.0303898   104.3759003   
1980000000    -21.5216503   174.4257050   28.3639603    179.7713013   -51.8902016   78.1461792    -16.9346905   104.2292023   
1985000000    -21.8453102   172.5426941   28.2940197    179.2449036   -51.4803391   83.2706528    -16.7800198   102.7338028   
1990000000    -22.0444908   172.8217010   28.2562809    178.8090057   -52.0144386   86.3494568    -16.7852402   101.2404022   
1995000000    -22.2029896   173.3446960   28.2168293    178.2944031   -51.3820000   79.0796204    -16.7753201   100.2724991   
2000000000    -22.2921600   173.2561951   28.1873093    177.7924042   -50.7117119   82.0994568    -16.7823105   99.0528870    
